FFT,Power Spectrum
Frequency[Hz],Level-L[dB],Level-R[dB]
43.066,51.052,51.587
86.133,51.531,51.39
129.2,51.366,51.446
172.27,51.381,51.803
215.33,50.827,50.948
258.4,51.921,51.652
301.46,70.864,71.483
344.53,89.325,89.967
387.6,90.208,90.848
430.66,74.707,75.348
473.73,53.083,53.451
516.8,50.981,51.508
559.86,50.944,51.386
602.93,50.242,50.804
646,52.438,52.937
689.06,77.627,78.136
732.13,87.048,87.552
775.2,81.588,82.091
818.26,54.601,54.924
861.33,48.465,48.681
904.39,45.639,45.902
947.46,45.007,45.436
990.53,43.486,44.106
1033.6,43.55,43.755
1076.7,47.327,46.02
1119.7,49.715,47.539
1162.8,43.093,43.234
1205.9,42.143,42.637
1248.9,42.208,42.361
1292,42.551,43.085
1335.1,43.105,42.721
1378.1,46.67,45.84
1421.2,71.349,70.784
1464.3,82.963,82.415
1507.3,79.345,78.796
1550.4,55.101,54.718
1593.5,42.134,41.617
1636.5,41.682,41.861
1679.6,40.552,40.514
1722.7,40.293,40.222
1765.7,39.323,39.493
1808.8,40.919,42.062
1851.9,42.048,43.91
1894.9,38.887,39.84
1938,37.983,37.53
1981.1,37.421,38.029
2024.1,37.229,37.188
2067.2,37.068,37.623
2110.3,36.439,36.891
2153.3,49.096,51.516
2196.4,63.085,65.488
2239.5,61.219,63.642
2282.5,42.168,44.021
2325.6,35.269,35.879
2368.7,35.144,35.215
2411.7,34.992,35.177
2454.8,34.881,35.579
2497.9,33.97,34.512
2540.9,35.427,35.8
2584,37.262,37.1
2627.1,34.962,35.314
2670.1,33.048,33.683
2713.2,33.787,34.163
2756.3,33.565,33.915
2799.3,33.101,33.526
2842.4,33.429,33.662
2885.4,37.082,37.219
2928.5,51.812,50.68
2971.6,51.812,50.925
3014.6,36.924,35.569
3057.7,32.185,32.638
3100.8,32.78,33.025
3143.8,31.625,33.029
3186.9,32.49,32.852
3230,31.637,32.606
3273,31.989,32.267
3316.1,31.984,32.334
3359.2,31.395,32.317
3402.2,31.604,31.645
3445.3,31.435,31.93
3488.4,31.001,31.528
3531.4,31.582,32.119
3574.5,31.544,31.953
3617.6,30.712,31.342
3660.6,40.383,39.585
3703.7,41.889,39.604
3746.8,32.846,32.643
3789.8,29.822,31.598
3832.9,31.351,30.518
3876,30.274,31.218
3919,30.061,30.892
3962.1,29.975,30.419
4005.2,30.622,31.496
4048.2,30.789,31.115
4091.3,29.632,30.461
4134.4,30.035,30.957
4177.4,30.646,30.019
4220.5,29.274,30.648
4263.6,29.727,30.393
4306.6,28.795,30.049
4349.7,31.027,30.331
4392.8,49.412,46.362
4435.8,52.792,49.736
4478.9,41.507,38.771
4522,29.151,29.289
4565,29.697,29.765
4608.1,28,28.655
4651.2,29.785,30.515
4694.2,28.69,28.295
4737.3,29.445,30.428
4780.4,32.701,33.575
4823.4,32.085,32.201
4866.5,28.51,28.926
4909.6,28.898,29.328
4952.6,27.963,28.824
4995.7,28.199,29.674
5038.8,28.6,28.841
5081.8,30.318,30.071
5124.9,52.709,47.423
5168,57.881,52.413
5211,48.448,42.994
5254.1,28.877,28.693
5297.2,28.437,28.048
5340.2,28.069,29.036
5383.3,27.34,28.918
5426.4,28.496,28.149
5469.4,27.647,27.317
5512.5,32.336,31.104
5555.6,32.089,27.953
5598.6,27.738,28.129
5641.7,28.285,29.036
5684.8,27.028,28.118
5727.8,28.031,27.377
5770.9,27.972,29.338
5814,26.947,28.116
5857,29.522,37.13
5900.1,31.86,44.094
5943.2,28.763,36.952
5986.2,27.219,28.152
6029.3,27.36,28.193
6072.4,28.297,27.088
6115.4,28.234,27.687
6158.5,27.649,28.817
6201.6,29.261,27.096
6244.6,29.899,30.071
6287.7,29.946,28.588
6330.8,28.744,28.055
6373.8,26.654,27.841
6416.9,27.619,27.772
6460,29.516,26.747
6503,29.011,28.543
6546.1,31.712,28.753
6589.2,31.751,38.606
6632.2,35.658,47.11
6675.3,33.006,42.3
6718.4,29.628,30.18
6761.4,29.916,29.616
6804.5,30.416,30.386
6847.6,32.139,30.656
6890.6,32.265,31.049
6933.7,30.493,28.26
6976.8,30.506,29.828
7019.8,29.959,30.639
7062.9,29.653,29.001
7106,26.407,27.192
7149,26.079,27.111
7192.1,26.359,28.188
7235.2,26.017,26.491
7278.2,26.914,28.273
7321.3,25.514,30.285
7364.4,34.138,40.529
7407.4,30.095,36.751
7450.5,27.2,27.79
7493.6,25.413,25.248
7536.6,25.259,26.895
7579.7,24.891,26.358
7622.8,26.866,25.648
7665.8,24.508,27.669
7708.9,26.719,24.187
7752,25.52,26.606
7795,25.727,27.716
7838.1,25.446,26.624
7881.2,25.118,26.645
7924.2,26.003,24.933
7967.3,25.919,26.217
8010.4,25.674,26.16
8053.4,25.823,26.016
8096.5,27.327,30.194
8139.6,28.067,29.972
8182.6,23.968,25.232
8225.7,25.593,25.372
8268.8,24.515,26.098
8311.8,24.682,25.688
8354.9,25.641,26.219
8397.9,24.427,25.812
8441,26.217,25.399
8484.1,24.561,26.067
8527.1,25.675,26.689
8570.2,24.665,24.28
8613.3,26.36,25.204
8656.3,25.48,26.357
8699.4,25.637,25.353
8742.5,24.43,26.633
8785.5,25.278,25.205
8828.6,25.138,28.145
8871.7,25.439,25.872
8914.7,27.428,27.071
8957.8,26.131,24.003
9000.9,26.419,26.357
9043.9,26.11,24.893
9087,27.498,25.636
9130.1,26.713,25.224
9173.1,24.611,25.348
9216.2,27.201,24.694
9259.3,26.433,26.811
9302.3,26.343,25.154
9345.4,22.707,25.37
9388.5,24.64,26.55
9431.5,25.394,27.13
9474.6,26.812,25.6
9517.7,24.836,26.423
9560.7,25.98,25.313
9603.8,23.456,28.36
9646.9,25.488,24.326
9689.9,25.261,27.004
9733,24.058,25.311
9776.1,24.923,25.633
9819.1,23.8,23.79
9862.2,25.89,25.324
9905.3,25.528,24.773
9948.3,22.904,27.317
9991.4,23.441,25.759
10034,24.988,27.113
10078,22.828,25.569
10121,24.838,26.723
10164,23.584,24.448
10207,26.137,25.459
10250,24.722,24.691
10293,27.461,27.087
10336,29.41,27.144
10379,23.833,25.261
10422,25.29,25.731
10465,24.463,24.617
10508,24.498,24.236
10551,24.001,22.923
10594,24.411,26.123
10637,22.767,23.661
10680,24.584,24.442
10724,23.361,24.531
10767,24.307,24.051
10810,24.918,27.064
10853,23.237,22.775
10896,25.529,25.227
10939,23.393,26.253
10982,23.751,22.907
11025,25.557,25.513
11068,26.455,26.78
11111,23.536,23.469
11154,24.751,25.501
11197,23.438,22.709
11240,24.354,25.127
11283,24.07,24.498
11326,24.672,24.893
11370,23.786,23.388
11413,23.042,24.84
11456,23.644,24.721
11499,24.093,26.107
11542,22.973,23.621
11585,25.15,25.889
11628,21.393,24.447
11671,24.488,25.285
11714,22.469,24.198
11757,24.24,25.239
11800,25.606,25.3
11843,25.667,25.023
11886,23.464,22.318
11929,23.842,25.128
11972,23.832,23.007
12016,24.376,25.497
12059,24.391,23.803
12102,22.72,23.97
12145,23.32,25.146
12188,23.103,24.259
12231,22.874,24.022
12274,23.043,24.252
12317,23.196,26.28
12360,22.633,23.688
12403,22.251,25.415
12446,23.859,25.456
12489,24.201,24.311
12532,23.86,27.639
12575,24.71,26.717
12618,21.909,23.59
12662,23.29,25.399
12705,23.723,23.902
12748,22.288,23.411
12791,23.007,24.725
12834,22.962,23.152
12877,22.101,25.276
12920,24.038,24.114
12963,21.836,24.544
13006,24.514,24.929
13049,22.24,23.706
13092,24.404,24.223
13135,21.314,25.283
13178,24.201,22.538
13221,22.906,23.341
13264,22.49,26.259
13308,23.641,25.117
13351,24.229,23.585
13394,23.294,23.863
13437,23.598,25.297
13480,23.135,23.403
13523,24.566,24.866
13566,22.803,23.269
13609,21.647,23.527
13652,24.237,24.116
13695,23.79,25.084
13738,22.638,21.232
13781,23.859,24.082
13824,23.576,24.103
13867,23.082,22.6
13910,22.777,22.799
13954,23.578,24.999
13997,23.06,23.668
14040,23.213,24.11
14083,22.318,24.189
14126,24.163,21.912
14169,21.924,23.118
14212,23.43,24.119
14255,22.822,24.003
14298,24.185,22.698
14341,25.468,24.978
14384,21.794,24.168
14427,22.845,23.777
14470,22.795,23.46
14513,23.65,22.523
14556,22.025,24.051
14600,22.752,23.107
14643,23.259,23.461
14686,24.47,23.904
14729,23.772,23.442
14772,22.674,23.129
14815,24.103,24.742
14858,21.768,23.209
14901,21.957,23.696
14944,23.63,22.666
14987,22.551,23.126
15030,23.135,22.862
15073,22.648,24.109
15116,22.789,24.215
15159,24.227,22.581
15202,20.74,22.973
15246,25.207,23.267
15289,25.387,24.777
15332,22.7,23.512
15375,25.474,23.254
15418,24.253,23.715
15461,25.343,23.7
15504,24.625,23.935
15547,23.465,22.483
15590,23.496,23.741
15633,24.48,23.549
15676,21.848,23.981
15719,23.697,21.817
15762,22.518,24.232
15805,23.34,23.622
15848,22.962,21.497
15892,24.033,23.479
15935,23.828,23.346
15978,23.889,24.185
16021,23.209,24.794
16064,23.368,24.073
16107,23.063,23.52
16150,23.931,24.006
16193,24.396,23.152
16236,24.704,24.391
16279,21.733,24.098
16322,24.432,23.548
16365,22.238,25.179
16408,22.668,23.979
16451,22.886,25.193
16494,22.534,22.666
16538,21.791,24.173
16581,20.388,22.21
16624,23.434,22.573
16667,23.091,23.148
16710,22.304,23.828
16753,24.061,25.273
16796,21.773,24.957
16839,23.035,22.6
16882,22.938,24.098
16925,22.174,24.38
16968,23.928,23.111
17011,23.259,23.451
17054,21.82,23.263
17097,25.122,24.377
17140,22.317,24.048
17183,24.183,23.336
17227,22.568,24.284
17270,22.853,23.608
17313,25.396,24.155
17356,20.23,22.7
17399,21.888,22.651
17442,22.649,21.427
17485,22.888,22.445
17528,22.558,24.795
17571,23.193,22.512
17614,23.231,22.134
17657,25.161,25.059
17700,23.882,23.374
17743,21.886,24.254
17786,22.096,22.904
17829,21.42,23.647
17873,24.195,23.343
17916,21.882,22.202
17959,23.801,23.583
18002,22.425,23.617
18045,22.934,22.922
18088,22.61,24
18131,22.044,24.326
18174,21.482,23.398
18217,24.818,22.788
18260,22.86,22.884
18303,23.322,23.372
18346,21.877,23.718
18389,22.2,24.367
18432,22.947,22.45
18475,22.577,23.197
18519,23.102,22.417
18562,20.678,24.161
18605,22.859,22.752
18648,21.551,23.033
18691,22.409,23.008
18734,22.565,22.649
18777,23.128,23.604
18820,21.582,23.267
18863,23.956,24.564
18906,23.794,23.308
18949,23.552,23.189
18992,23.367,23.773
19035,22.008,23.943
19078,21.775,21.403
19121,23.72,23.469
19165,21.655,22.866
19208,22.686,22.816
19251,22.145,23.616
19294,22.608,24.693
19337,23.022,24.862
19380,22.348,21.576
19423,22.145,23.171
19466,21.528,23.693
19509,22.108,23.172
19552,22.371,23.043
19595,22.06,22.591
19638,22.937,24.27
19681,21.823,23.095
19724,22.235,21.215
19767,21.647,20.99
19811,23.377,22.924
19854,22.492,24.958
19897,22.231,23.426
19940,21.941,21.728
19983,22.472,23.07
20026,22.906,22.223
20069,21.324,23.349
20112,24.122,24.564
20155,23.334,23.055
20198,23.128,22.827
20241,22.864,23.945
20284,22.498,23.109
20327,22.711,22.581
20370,21.603,22.719
20413,22.043,24.157
20457,22.797,23.421
20500,22.407,23.349
20543,20.897,23.635
20586,23.372,22.421
20629,20.842,21.916
20672,21.861,21.148
20715,21.78,23.663
20758,22.89,21.682
20801,21.651,23.299
20844,22.176,23.19
20887,20.991,23.811
20930,20.549,23.584
20973,22.624,24.142
21016,19.567,21.92
21059,23.321,23.634
21103,21.712,23.089
21146,21.48,22.654
21189,22.77,20.155
21232,23.021,23.452
21275,21.964,23.741
21318,20.849,22.017
21361,22.833,23.628
21404,20.798,21.245
21447,22.666,22.245
21490,20.923,23.608
21533,21.234,22.144
21576,20.991,22.263
21619,20.938,22.021
21662,21.007,20.367
21705,20.869,21.586
21749,20.994,21.352
21792,24.522,23.905
21835,20.51,20.254
21878,20.344,23.646
21921,21.333,20.87
21964,21.042,23.135
22007,21.722,20.786
