FFT,Power Spectrum
Frequency[Hz],Level-L[dB],Level-R[dB]
15.625,48.25,44.782
31.25,41.912,39.908
46.875,37.896,35.772
62.5,30.284,24.199
78.125,33.898,25.981
93.75,30.477,25.606
109.38,26.931,23.594
125,27.614,21.083
140.63,27.186,19.29
156.25,23.433,18.731
171.88,23.847,20.694
187.5,25.224,18.774
203.13,22.985,20.317
218.75,21.345,16.981
234.38,22.213,16.929
250,22.531,20.197
265.63,22.231,18.587
281.25,20.988,17.885
296.88,24.435,21.384
312.5,23.402,20.787
328.13,19.691,17.401
343.75,35.591,33.475
359.38,55.5,54.043
375,57.255,55.837
390.63,42.904,41.791
406.25,19.472,16.095
421.88,21.459,20.613
437.5,21.385,19.927
453.13,20.541,18.766
468.75,20.301,19.735
484.38,21.625,17.192
500,21.281,16.802
515.63,19.651,18.648
531.25,19.542,16.693
546.88,18.263,16.182
562.5,21.113,15.131
578.13,16.807,19.91
593.75,14.418,17.871
609.38,18.247,17.638
625,18.328,19.372
640.63,17.754,18.473
656.25,19.783,19.967
671.88,19.568,18.299
687.5,17.498,14.918
703.13,17.361,18.893
718.75,17.636,19.473
734.38,21.103,22.604
750,22.779,21.754
765.63,18.569,17.035
781.25,16.617,17.017
796.88,16.891,16.932
812.5,19.595,15.448
828.13,19.636,19.399
843.75,21.012,20.564
859.38,22.602,15.756
875,17.442,16.993
890.63,19.533,20.722
906.25,16.101,17.754
921.88,18.208,17.984
937.5,19.727,18.095
953.13,19.481,19.067
968.75,18.9,17.714
984.38,19.261,20.641
1000,19.521,20.671
1015.6,15.597,19.282
1031.3,17.497,18.082
1046.9,17.946,16.647
1062.5,18.206,17.437
1078.1,17.991,18.252
1093.8,22.445,25.421
1109.4,27.216,29.954
1125,20.148,22.915
1140.6,18.77,19.775
1156.3,17.611,16.584
1171.9,18.187,15.611
1187.5,17.527,17.634
1203.1,15.233,16.217
1218.8,16.223,17.318
1234.4,17.391,18.991
1250,15.779,19.304
1265.6,16.903,18.631
1281.3,15.179,19.308
1296.9,15.164,18.654
1312.5,15.371,15.084
1328.1,17.422,18.858
1343.8,15.647,18.475
1359.4,16.174,18.539
1375,16.02,18.273
1390.6,14.658,14.092
1406.3,17.703,17.72
1421.9,14.741,18.697
1437.5,16.868,16.506
1453.1,17.446,14.465
1468.8,16.597,18.857
1484.4,19.237,18.214
1500,20.193,15.7
1515.6,19.152,16.328
1531.3,17.58,17.182
1546.9,18.875,19.124
1562.5,19.096,18.918
1578.1,16.89,19.342
1593.8,16.541,17.581
1609.4,16.652,18.648
1625,16.666,15.751
1640.6,18.196,17.5
1656.3,16.287,16.803
1671.9,17.253,16.603
1687.5,16.08,15.801
1703.1,15.891,17.923
1718.8,18.411,19.435
1734.4,17.403,19.293
1750,17.803,19.41
1765.6,18.113,18.463
1781.3,17.731,19.49
1796.9,16.708,14.988
1812.5,17.945,17.995
1828.1,20.94,20.194
1843.8,24.875,23.401
1859.4,20.396,22.031
1875,13.587,16.108
1890.6,12.739,17.763
1906.3,13.985,19.212
1921.9,15.688,15.501
1937.5,16.263,17.098
1953.1,17.143,20.338
1968.8,18.221,18.683
1984.4,18.532,16.722
2000,21.348,20.362
2015.6,18.276,14.559
2031.3,16.612,14.022
2046.9,19.202,15.131
2062.5,17.714,13.968
2078.1,16.424,15.98
2093.8,14.257,19.907
2109.4,12.98,18.882
2125,16.689,18.012
2140.6,18.142,15.573
2156.3,18.951,14.624
2171.9,16.584,18.746
2187.5,16.447,16.136
2203.1,15.701,14.437
2218.8,17.985,16.854
2234.4,17.271,16.463
2250,14.889,17.76
2265.6,14.601,17.062
2281.3,13.852,17.547
2296.9,15.906,16.182
2312.5,18.477,16.137
2328.1,18.116,18.337
2343.8,17.442,19.389
2359.4,16.563,19.115
2375,16.533,18.513
2390.6,16.403,15.402
2406.3,18.073,17.358
2421.9,16.629,16.393
2437.5,16.115,15.179
2453.1,14.939,16.167
2468.8,14.709,14.345
2484.4,14.223,16.685
2500,16.459,18.311
2515.6,17.259,18.034
2531.3,14.932,18.013
2546.9,12.912,18.99
2562.5,15.58,18.015
2578.1,16.226,17.616
2593.8,16.503,17.072
2609.4,14.929,16.177
2625,16.926,18.841
2640.6,14.247,18.354
2656.3,12.088,16.693
2671.9,14.354,16.511
2687.5,16.033,16.489
2703.1,15.271,15.704
2718.8,13.383,17.12
2734.4,15.892,15.526
2750,17.867,16.974
2765.6,16.934,17.777
2781.3,11.503,17.56
2796.9,14.441,17.517
2812.5,15.426,17.947
2828.1,14.177,17.937
2843.8,14.427,18.413
2859.4,18.093,18.682
2875,16.202,14.957
2890.6,16.2,16.93
2906.3,14.996,16.984
2921.9,14.705,15.96
2937.5,14.326,16.618
2953.1,14.792,17.544
2968.8,16.374,15.997
2984.4,18.752,18.924
3000,19.181,20.495
3015.6,16.221,14.146
3031.3,14.136,16.611
3046.9,14.962,17.738
3062.5,15.387,15.046
3078.1,15.885,18.532
3093.8,15.334,19.53
3109.4,17.5,18.082
3125,15.683,16.145
3140.6,19.018,15.559
3156.3,18.275,17.825
3171.9,15.274,17.454
3187.5,14.934,18.444
3203.1,14.771,15.976
3218.8,14.536,17.023
3234.4,16.416,17.59
3250,16.38,17.387
3265.6,14.82,17.655
3281.3,15.468,18.296
3296.9,17.028,18.41
3312.5,18.621,17.129
3328.1,16.582,17.029
3343.8,15.888,15.672
3359.4,16.916,17.254
3375,16.997,18.728
3390.6,15.73,17.488
3406.3,14.949,16.827
3421.9,17.041,14.658
3437.5,16.821,15.506
3453.1,14.04,17.347
3468.8,16.548,17.097
3484.4,17.412,17.501
3500,17.457,19.865
3515.6,15.808,17.529
3531.3,15.81,16.266
3546.9,18.227,17.445
3562.5,14.834,18.974
3578.1,12.912,16.981
3593.8,15.716,14.528
3609.4,14.262,14.878
3625,14.604,16.293
3640.6,19.229,14.416
3656.3,16.501,16.364
3671.9,13.385,17.076
3687.5,17.023,18.376
3703.1,17.278,18.022
3718.8,14.855,16.153
3734.4,14.357,17.49
3750,15.956,14.546
3765.6,16.454,17.378
3781.3,17.179,16.675
3796.9,18.581,17.781
3812.5,16.652,17.847
3828.1,15.711,15.383
3843.8,14.32,18.303
3859.4,15.625,18.513
3875,14.245,17.962
3890.6,14.294,16.696
3906.3,14.66,17.222
3921.9,12.428,18.801
3937.5,15.029,17.985
3953.1,16.853,17.699
3968.8,17.254,17.878
3984.4,18.244,18.341
4000,17.023,15.219
4015.6,17.093,14.127
4031.3,15.067,17.056
4046.9,13.635,17.408
4062.5,14.373,16.101
4078.1,15.428,13.591
4093.8,15.82,13.396
4109.4,15.058,16.508
4125,15.093,15.445
4140.6,13.608,14.291
4156.3,15.009,16.729
4171.9,16.111,16.931
4187.5,14.814,15.759
4203.1,13.821,16.203
4218.8,14.301,16.787
4234.4,16.474,14.311
4250,17.05,16.381
4265.6,16.702,18.105
4281.3,14.097,16.826
4296.9,16.185,16.956
4312.5,17.747,17.543
4328.1,18.084,17.436
4343.8,16.44,17.446
4359.4,16.452,15.486
4375,16.596,16.351
4390.6,16.246,16.318
4406.3,16.311,17.185
4421.9,16.26,16.403
4437.5,13.603,17.697
4453.1,15.536,16.293
4468.8,14.811,14.59
4484.4,15.375,18.767
4500,16.013,17.747
4515.6,15.464,13.709
4531.3,16.513,14.106
4546.9,16.581,13.323
4562.5,14.848,15.784
4578.1,17.359,16.732
4593.8,14.555,16.658
4609.4,13.155,16.192
4625,17.78,16.79
4640.6,18.135,19.091
4656.3,12.7,19.259
4671.9,15.957,15.365
4687.5,16.733,17.913
4703.1,15.112,18.233
4718.8,16.171,16.562
4734.4,18.194,17.671
4750,16.167,18.486
4765.6,16.435,18.802
4781.3,17.139,18.929
4796.9,17.928,19.294
4812.5,15.67,17.258
4828.1,18.363,15.52
4843.8,17.525,16.417
4859.4,18.246,15.992
4875,15.979,15.533
4890.6,17.06,16.617
4906.3,16.154,18.011
4921.9,15.064,15.534
4937.5,14.883,18.009
4953.1,15.892,17.351
4968.8,13.033,16.996
4984.4,14.132,17.963
5000,17.109,18.864
5015.6,17.162,18.448
5031.3,13.708,19.371
5046.9,13.708,17.856
5062.5,16.892,13.372
5078.1,17.023,10.739
5093.8,13.294,13.962
5109.4,15.986,15.856
5125,13.625,17.494
5140.6,14.162,14.839
5156.3,16.432,15.714
5171.9,18.251,17.598
5187.5,15.435,18.783
5203.1,15.814,19.125
5218.8,15.64,18.944
5234.4,13.967,18.13
5250,15.169,15.432
5265.6,16.224,17.205
5281.3,16.553,17.689
5296.9,15.16,14.564
5312.5,15.874,14.749
5328.1,18.418,14.916
5343.8,19.086,15.886
5359.4,18.664,13.021
5375,16.611,16.853
5390.6,15.135,17.723
5406.3,16.171,13.213
5421.9,16.205,15.379
5437.5,17.509,17.268
5453.1,16.959,17.221
5468.8,14.848,18.063
5484.4,12.488,18.709
5500,13.855,18.337
5515.6,13.195,16.965
5531.3,14.803,16.686
5546.9,15.562,17.336
5562.5,15.902,17.52
5578.1,17.182,17.893
5593.8,14.734,17.335
5609.4,13.634,16.343
5625,13.932,17.788
5640.6,16.37,17.76
5656.3,16.46,18.029
5671.9,17.352,19.625
5687.5,18.097,18.894
5703.1,16.661,18.135
5718.8,13.719,15.257
5734.4,13.85,13.275
5750,15.525,14.587
5765.6,15.443,17.607
5781.3,17.262,17.84
5796.9,16.161,14.656
5812.5,17.556,14.037
5828.1,17.909,16.166
5843.8,16.739,17.479
5859.4,13.926,15.949
5875,15.306,15.675
5890.6,14.79,19.678
5906.3,15.798,17.066
5921.9,15.509,14.685
5937.5,12.836,15.033
5953.1,15.522,15.679
5968.8,16.194,18.118
5984.4,16.895,16.87
6000,16.51,17.179
6015.6,14.985,17.352
6031.3,16.727,16.145
6046.9,17.859,16.764
6062.5,14.866,16.093
6078.1,12.543,17.179
6093.8,13.307,14.952
6109.4,14.909,13.734
6125,14.539,15.256
6140.6,17.612,18.287
6156.3,17.409,18.425
6171.9,14.582,19.242
6187.5,15.689,16.311
6203.1,16.337,15.698
6218.8,14.123,14.88
6234.4,12.493,15.166
6250,13.253,12.594
6265.6,14.293,15.136
6281.3,14.311,14.995
6296.9,16.736,15.755
6312.5,15.607,14.195
6328.1,15.781,16.95
6343.8,17.439,17.513
6359.4,14.893,16.395
6375,14.116,16.422
6390.6,16,14.021
6406.3,15.11,16.255
6421.9,13.923,16.862
6437.5,11.8,14.307
6453.1,13.446,15.604
6468.8,14.38,13.637
6484.4,15.482,13.173
6500,14.947,16.425
6515.6,13.629,13.048
6531.3,13.259,15.754
6546.9,14.179,15.964
6562.5,13.559,13.987
6578.1,12.074,12.549
6593.8,11.409,12.896
6609.4,12.501,14.952
6625,14.088,16.152
6640.6,12.806,14.4
6656.3,11.262,16.007
6671.9,14.102,15.554
6687.5,15.402,16.453
6703.1,14.026,18.337
6718.8,12.914,16.269
6734.4,14.27,14.79
6750,13.194,14.63
6765.6,11.459,14.505
6781.3,13.345,15.593
6796.9,10.326,14.483
6812.5,13.767,14.971
6828.1,14.858,13.293
6843.8,13.394,11.662
6859.4,13.652,13.21
6875,13.275,14.236
6890.6,14.796,17.282
6906.3,14.339,13.937
6921.9,11.108,13.362
6937.5,11.217,14.324
6953.1,12.915,15.721
6968.8,13.415,15.676
6984.4,14.197,15.532
7000,15.042,12.973
7015.6,13.207,11.433
7031.3,13.237,12.118
7046.9,12.989,14.055
7062.5,13.883,13.945
7078.1,14.744,15.258
7093.8,11.564,12.846
7109.4,12.716,13.038
7125,14.884,10.736
7140.6,10.829,11.425
7156.3,11.596,11.36
7171.9,13.149,12.365
7187.5,11.91,12.261
7203.1,13.098,9.9139
7218.8,12.665,12.256
7234.4,15.316,15.05
7250,14.624,13.159
7265.6,15.031,14.141
7281.3,12.688,13.908
7296.9,10.705,12.95
7312.5,11.111,14.219
7328.1,10.611,12.117
7343.8,11.36,13.169
7359.4,11.682,12.062
7375,12.141,12.683
7390.6,10.799,11.698
7406.3,8.7223,12.49
7421.9,9.9823,9.8801
7437.5,12.049,11.307
7453.1,9.9498,9.9369
7468.8,9.1064,9.0121
7484.4,8.6746,11.786
7500,8.0794,12.606
7515.6,8.4915,12.956
7531.3,6.0063,12.073
7546.9,5.3018,13.576
7562.5,9.5372,11.32
7578.1,9.3268,12.171
7593.8,9.885,11.415
7609.4,11.859,12.416
7625,10.887,10.959
7640.6,11.82,13.714
7656.3,13.669,11.925
7671.9,12.987,12.677
7687.5,12.592,11.349
7703.1,12.289,13.658
7718.8,12.612,13.439
7734.4,9.6069,10.626
7750,8.9648,8.1687
7765.6,8.0733,9.2608
7781.3,10.281,9.8399
7796.9,10.321,12.218
7812.5,9.0538,13.206
7828.1,8.8719,11.065
7843.8,9.9441,10.264
7859.4,11.033,12.419
7875,11.403,9.2796
7890.6,11.163,10.353
7906.3,12.149,13.603
7921.9,12.594,12.864
7937.5,12.021,11.75
7953.1,8.8107,10.547
7968.8,10.497,10.974
7984.4,9.0126,10.577
