FFT,Power Spectrum
Frequency[Hz],Level-L[dB],Level-R[dB]
15.625,52.934,51.711
31.25,51.653,50.467
46.875,51.72,50.411
62.5,52.337,50.421
78.125,52.101,51.026
93.75,52.451,51.001
109.38,52.84,51.354
125,53.039,51.791
140.63,53.583,52.206
156.25,54.076,52.617
171.88,54.572,53.305
187.5,55.249,53.911
203.13,55.877,54.455
218.75,56.592,55.373
234.38,57.44,56.015
250,58.391,57.125
265.63,59.242,57.849
281.25,60.148,58.803
296.88,61.16,59.679
312.5,60.98,59.44
328.13,58.089,56.018
343.75,80.803,79.472
359.38,101.29,99.965
375,103.05,101.73
390.63,88.809,87.482
406.25,60.672,59.342
421.88,60.796,59.453
437.5,61.533,60.222
453.13,60.931,59.601
468.75,60.04,58.683
484.38,59.019,57.691
500,58.21,56.919
515.63,57.327,56.009
531.25,56.632,55.316
546.88,55.868,54.529
562.5,55.244,53.915
578.13,54.607,53.312
593.75,54.028,52.732
609.38,53.691,52.295
625,53.076,51.807
640.63,52.586,51.24
656.25,52.129,50.88
671.88,51.816,50.413
687.5,51.258,50.021
703.13,51.026,49.713
718.75,53.732,51.446
734.38,64.661,61.558
750,60.358,57.347
765.63,50.216,48.908
781.25,49.162,47.719
796.88,49.047,47.661
812.5,48.772,47.646
828.13,48.552,47.245
843.75,48.078,46.769
859.38,47.969,46.64
875,48.067,46.703
890.63,48.013,46.859
906.25,47.413,46.249
921.88,46.838,45.555
937.5,46.354,44.814
953.13,46.806,45.435
968.75,47.341,46.19
984.38,46.886,45.868
1000,46.107,44.73
1015.6,45.35,43.966
1031.3,45.849,44.488
1046.9,46.049,45.088
1062.5,46.032,45.042
1078.1,44.885,43.607
1093.8,51.633,52.846
1109.4,56.549,58.331
1125,49.341,50.1
1140.6,45.22,44.377
1156.3,44.278,43.363
1171.9,44.076,42.697
1187.5,44.035,42.366
1203.1,44.244,42.746
1218.8,44.085,43.197
1234.4,43.657,42.659
1250,43.531,41.985
1265.6,43.168,42.064
1281.3,43.565,42.004
1296.9,43.224,41.983
1312.5,43.085,41.784
1328.1,43.119,41.944
1343.8,42.612,41.629
1359.4,42.654,41.061
1375,42.558,41.338
1390.6,42.581,40.964
1406.3,42.647,41.535
1421.9,42.251,41.073
1437.5,41.952,40.796
1453.1,42.906,42.047
1468.8,50.986,52.921
1484.4,51.456,52.976
1500,42.029,41.655
1515.6,41.522,40.456
1531.3,41.746,40.34
1546.9,41.372,39.739
1562.5,41.536,40.44
1578.1,41.182,39.81
1593.8,41.085,39.955
1609.4,41.005,39.745
1625,41.114,39.592
1640.6,40.971,39.299
1656.3,40.84,39.865
1671.9,40.48,39.653
1687.5,40.799,38.933
1703.1,40.336,39.634
1718.8,40.569,38.96
1734.4,40.41,39.06
1750,40.109,39.004
1765.6,40.32,38.94
1781.3,40.347,38.903
1796.9,39.307,38.567
1812.5,40.379,38.741
1828.1,42.441,40.868
1843.8,49.08,47.987
1859.4,44.335,43.051
1875,39.488,38.298
1890.6,39.546,38.442
1906.3,39.367,37.896
1921.9,39.556,38.171
1937.5,39.412,38.36
1953.1,39.075,37.359
1968.8,39.266,38.176
1984.4,39.189,37.812
2000,38.932,37.618
2015.6,39.169,37.757
2031.3,38.631,37.882
2046.9,38.864,37.433
2062.5,39.078,37.667
2078.1,38.328,37.142
2093.8,38.77,37.584
2109.4,38.675,37.004
2125,38.373,37.439
2140.6,38.598,37.235
2156.3,38.006,36.568
2171.9,38.366,37.461
2187.5,38.261,36.859
2203.1,39.541,38.938
2218.8,44.028,43.244
2234.4,37.98,36.853
2250,37.798,36.577
2265.6,38.147,36.856
2281.3,37.731,36.693
2296.9,38.079,36.128
2312.5,37.683,37.102
2328.1,37.454,36.166
2343.8,37.749,36.241
2359.4,37.741,36.648
2375,37.338,36.066
2390.6,37.551,36.071
2406.3,37.28,36.254
2421.9,37.746,35.965
2437.5,36.955,36.21
2453.1,37.457,35.988
2468.8,37.126,35.663
2484.4,37.007,35.854
2500,37.111,35.993
2515.6,36.953,35.522
2531.3,36.994,35.504
2546.9,37.1,35.913
2562.5,37.553,37.413
2578.1,37.162,38.959
2593.8,40.335,41.884
2609.4,36.632,35.228
2625,36.751,35.437
2640.6,36.593,35.515
2656.3,36.613,35.318
2671.9,36.806,35.397
2687.5,36.405,35.467
2703.1,36.742,34.946
2718.8,36.16,34.982
2734.4,36.438,35.747
2750,36.396,34.376
2765.6,36.406,35.412
2781.3,36.119,34.902
2796.9,36.244,35.257
2812.5,35.823,34.647
2828.1,36.395,34.839
2843.8,36.202,34.882
2859.4,35.98,34.974
2875,35.925,34.784
2890.6,35.778,34.656
2906.3,36.096,34.566
2921.9,35.931,34.768
2937.5,36.497,34.917
2953.1,37.173,35.9
2968.8,36.313,34.788
2984.4,35.594,34.436
3000,35.544,34.682
3015.6,35.56,33.919
3031.3,35.229,34.175
3046.9,35.875,34.932
3062.5,35.475,33.785
3078.1,35.283,34.561
3093.8,35.386,33.94
3109.4,35.278,34.4
3125,35.015,33.994
3140.6,35.372,33.519
3156.3,35.392,33.838
3171.9,35.027,34.713
3187.5,35.199,33.1
3203.1,35.175,34.446
3218.8,34.738,33.488
3234.4,35.394,33.815
3250,35.092,33.688
3265.6,34.752,33.931
3281.3,35.011,33.542
3296.9,34.581,33.815
3312.5,35.36,32.943
3328.1,34.583,34.322
3343.8,34.91,33.755
3359.4,35.187,33.133
3375,33.91,33.542
3390.6,34.977,33.544
3406.3,34.669,33.567
3421.9,34.4,32.827
3437.5,34.571,33.899
3453.1,34.84,32.894
3468.8,34.373,33.492
3484.4,34.366,33.284
3500,34.66,32.824
3515.6,34.346,33.241
3531.3,36.428,34.923
3546.9,33.792,32.482
3562.5,34.398,33.745
3578.1,34.532,32.817
3593.8,33.998,32.491
3609.4,33.998,33.161
3625,34.432,33.283
3640.6,33.996,32.269
3656.3,34.277,32.964
3671.9,34.034,33.337
3687.5,34.51,32.748
3703.1,33.584,33.071
3718.8,34.37,32.487
3734.4,33.915,32.894
3750,33.871,32.733
3765.6,33.97,32.942
3781.3,33.765,32.325
3796.9,33.974,32.614
3812.5,33.884,32.997
3828.1,33.269,32.225
3843.8,33.863,33.073
3859.4,34.1,31.853
3875,33.58,32.866
3890.6,34.071,32.02
3906.3,33.271,32.891
3921.9,33.366,32.151
3937.5,34.26,32.616
3953.1,33.636,32.298
3968.8,32.868,32.156
3984.4,34.132,32.183
4000,32.859,32.281
4015.6,34.107,32.635
4031.3,32.831,31.613
4046.9,33.907,33.005
4062.5,33.34,33.164
4078.1,33.133,32.837
4093.8,33.906,32.091
4109.4,33.082,31.78
4125,33.192,31.857
4140.6,33.549,32.326
4156.3,33.133,31.954
4171.9,33.154,31.624
4187.5,33.16,31.947
4203.1,33.236,31.846
4218.8,33.529,32.778
4234.4,32.675,31.141
4250,33.017,32.428
4265.6,33.298,30.97
4281.3,33.324,32.826
4296.9,32.602,31.717
4312.5,33.116,31.318
4328.1,33.06,31.873
4343.8,32.754,31.803
4359.4,33.333,31.937
4375,32.813,31.802
4390.6,32.609,31.775
4406.3,32.688,31.309
4421.9,38.072,36.807
4437.5,35.13,34.741
4453.1,32.091,31.56
4468.8,33.128,31.37
4484.4,32.553,32.309
4500,32.983,30.67
4515.6,32.324,31.269
4531.3,32.896,32.093
4546.9,32.584,31.258
4562.5,32.25,31.194
4578.1,32.544,31.56
4593.8,32.643,31.566
4609.4,33.104,31.585
4625,31.753,31.247
4640.6,32.516,30.587
4656.3,33.14,32.084
4671.9,31.902,30.704
4687.5,32.416,31.521
4703.1,33.119,30.92
4718.8,31.493,30.936
4734.4,32.698,32.132
4750,32.633,31.434
4765.6,32.098,30.826
4781.3,34.756,32.455
4796.9,42.061,40.284
4812.5,37.116,35.095
4828.1,31.984,30.866
4843.8,32.3,30.63
4859.4,32.563,30.822
4875,32.136,31.865
4890.6,31.696,30.61
4906.3,32.775,31.147
4921.9,32.043,31.423
4937.5,32.06,30.407
4953.1,32.582,31.067
4968.8,31.185,30.42
4984.4,33.056,30.986
5000,31.607,30.958
5015.6,32.32,30.982
5031.3,32.086,30.387
5046.9,32.106,30.796
5062.5,32.046,31.407
5078.1,31.951,30.416
5093.8,31.873,30.731
5109.4,31.921,30.971
5125,32.255,30.798
5140.6,31.375,30.755
5156.3,40.013,39.452
5171.9,41.048,40.719
5187.5,34.776,34.595
5203.1,32,30.724
5218.8,31.811,30.097
5234.4,31.667,31.587
5250,31.773,29.287
5265.6,31.874,30.559
5281.3,31.543,31.268
5296.9,31.972,29.954
5312.5,31.8,31.199
5328.1,31.29,29.687
5343.8,31.834,30.945
5359.4,31.923,29.9
5375,31.277,30.443
5390.6,31.805,29.888
5406.3,31.817,30.724
5421.9,30.747,31.015
5437.5,32.776,30.427
5453.1,31.326,29.6
5468.8,31.568,30.998
5484.4,31.184,30.267
5500,31.951,29.953
5515.6,29.453,28.887
5531.3,40.643,38.813
5546.9,33.039,31.191
5562.5,32.867,31.385
5578.1,31.238,30.286
5593.8,31.028,30.635
5609.4,31.773,29.308
5625,31.506,31.019
5640.6,31.083,29.841
5656.3,30.74,29.799
5671.9,32.17,30.198
5687.5,30.262,30.602
5703.1,31.478,29.862
5718.8,31.659,29.762
5734.4,30.649,30.694
5750,32.003,29.704
5765.6,31.023,29.779
5781.3,31.306,29.786
5796.9,31.707,30.884
5812.5,30.613,29.233
5828.1,31.54,29.813
5843.8,31.497,30.237
5859.4,30.95,29.887
5875,31.288,30.311
5890.6,32.554,29.875
5906.3,34.012,32.193
5921.9,31.035,29.061
5937.5,32.51,30.23
5953.1,30.225,30.133
5968.8,31.2,29.532
5984.4,31.402,29.915
6000,30.74,30.392
6015.6,30.691,30.156
6031.3,31.59,29.311
6046.9,31.114,29.854
6062.5,30.574,30.125
6078.1,31.145,29.339
6093.8,30.865,30.366
6109.4,31.211,29.207
6125,31.552,30.485
6140.6,30.679,29.362
6156.3,30.99,30.004
6171.9,30.301,29.373
6187.5,31.576,30.326
6203.1,30.953,29.416
6218.8,30.944,29.626
6234.4,31.06,29.588
6250,30.541,30.213
6265.6,31.893,27.285
6281.3,34.844,33.629
6296.9,29.912,29.456
6312.5,30.506,29.43
6328.1,31.403,29.039
6343.8,31.268,30.43
6359.4,30.268,29.614
6375,31.492,29.541
6390.6,30.435,29.529
6406.3,30.561,29.924
6421.9,31.582,29.336
6437.5,30.446,29.959
6453.1,30.496,29.243
6468.8,30.94,29.443
6484.4,31.213,30.801
6500,30.378,28.466
6515.6,31.396,29.493
6531.3,30.645,29.6
6546.9,30.943,30.21
6562.5,30.382,29.668
6578.1,30.444,28.992
6593.8,31.369,29.718
6609.4,30.302,29.598
6625,30.384,30.35
6640.6,33.666,30.269
6656.3,30.632,31.223
6671.9,30.398,29.804
6687.5,31.073,29.287
6703.1,30.613,29.56
6718.8,30.575,29.305
6734.4,30.559,29.664
6750,30.771,29.5
6765.6,30.48,29.862
6781.3,30.893,29.134
6796.9,30.543,29.435
6812.5,30.764,29.391
6828.1,30.672,29.471
6843.8,30.161,28.759
6859.4,30.679,29.696
6875,31.32,29.26
6890.6,29.958,29.102
6906.3,30.572,29.887
6921.9,30.452,29.153
6937.5,30.753,29.518
6953.1,30.731,29.243
6968.8,30.233,29.244
6984.4,30.71,29.23
7000,31.631,29.488
7015.6,30.834,28.477
7031.3,31.492,30.698
7046.9,30.443,28.4
7062.5,30.375,29.369
7078.1,30.313,29.11
7093.8,30.872,29.689
7109.4,30.417,28.71
7125,30.954,29.198
7140.6,30.094,29.7
7156.3,30.828,28.795
7171.9,30.181,29.725
7187.5,30.656,29.001
7203.1,30.419,30.039
7218.8,30.619,28.538
7234.4,30.582,29.483
7250,30.014,28.975
7265.6,30.492,29.365
7281.3,30.561,29.023
7296.9,30.459,29.521
7312.5,30.321,29.182
7328.1,30.551,29.187
7343.8,30.196,29.836
7359.4,30.804,28.147
7375,30.987,31.157
7390.6,30.549,29.256
7406.3,29.889,28.882
7421.9,30.8,29.773
7437.5,30.432,29.238
7453.1,30.472,29.06
7468.8,30.223,29.154
7484.4,30.398,29.117
7500,30.557,29.267
7515.6,30.515,28.813
7531.3,30.305,29.468
7546.9,30.296,29.331
7562.5,30.407,28.742
7578.1,29.945,29.53
7593.8,30.953,29.055
7609.4,30.127,29.333
7625,30.481,29.066
7640.6,30.362,29.179
7656.3,30.033,28.729
7671.9,30.822,29.606
7687.5,30.238,29.12
7703.1,30.437,29.232
7718.8,30.135,28.844
7734.4,30.54,29.354
7750,30.317,29.368
7765.6,30.351,28.711
7781.3,30.224,29.434
7796.9,30.633,29.075
7812.5,30.155,29.133
7828.1,30.423,29.413
7843.8,30.482,28.915
7859.4,30.722,28.919
7875,29.949,29.339
7890.6,30.087,29.015
7906.3,30.714,29.518
7921.9,30.201,28.932
7937.5,30.605,29.071
7953.1,29.975,28.813
7968.8,30.524,29.525
7984.4,30.356,28.933
